# Photometry
# Wave [um]   flux [Jy]  (extraction error,total error) :: w^2*flux [um^2 JY] (extraction error,total error)
2.12067 2.44540 (0.0247001,0.124740) :: 10.9975 (0.111082,0.560984)
# Spectra
# Wave[um]  flux[Jy]  Unc[Jy] w^2*flux[um^2Jy]  Unc[um^2Jy]
      2.4038401       1.6311001       0.0048840       9.4252253       0.0282221
      2.4047899       1.5808100       0.0043449       9.1418476       0.0251264
      2.4057500       1.6261500       0.0042896       9.4115601       0.0248269
      2.4066999       1.6232899       0.0041045       9.4024267       0.0237740
      2.4076600       1.6181000       0.0038623       9.3798456       0.0223892
      2.4086101       1.5924500       0.0037110       9.2384434       0.0215290
      2.4095700       1.6234400       0.0036034       9.4257374       0.0209213
      2.4105201       1.6018100       0.0033978       9.3074884       0.0197432
      2.4114799       1.6064399       0.0032309       9.3418264       0.0187883
      2.4124300       1.5942600       0.0031367       9.2783041       0.0182548
      2.4133899       1.6215900       0.0030499       9.4448719       0.0177641
      2.4143400       1.6279500       0.0029572       9.4893818       0.0172379
      2.4152901       1.6152900       0.0028074       9.4229984       0.0163773
      2.4162500       1.6069100       0.0026879       9.3815651       0.0156925
      2.4172001       1.6086100       0.0025719       9.3988771       0.0150275
      2.4181600       1.6191400       0.0025077       9.4679174       0.0146636
      2.4191101       1.6046600       0.0024088       9.3906212       0.0140964
      2.4200699       1.6157200       0.0023505       9.4628496       0.0137663
      2.4210200       1.6139801       0.0022837       9.4600830       0.0133853
      2.4219799       1.6203001       0.0022211       9.5046587       0.0130290
      2.4229300       1.6200600       0.0021409       9.5107079       0.0125681
      2.4238901       1.6296099       0.0021168       9.5743551       0.0124366
      2.4248400       1.6281800       0.0020749       9.5734529       0.0122001
      2.4258001       1.6543500       0.0020497       9.7350330       0.0120616
      2.4267600       1.6755100       0.0020302       9.8673534       0.0119561
      2.4277101       1.6678900       0.0020098       9.8301697       0.0118451
      2.4286699       1.6740500       0.0019998       9.8742790       0.0117956
      2.4296200       1.6765000       0.0019740       9.8964682       0.0116525
      2.4305799       1.6784700       0.0019484       9.9159288       0.0115108
      2.4315300       1.6704600       0.0019243       9.8763247       0.0113769
      2.4324901       1.6671000       0.0019086       9.8642435       0.0112929
      2.4334400       1.6751400       0.0019204       9.9195595       0.0113721
      2.4344001       1.6718800       0.0019284       9.9080687       0.0114280
      2.4353499       1.6882000       0.0019228      10.0125942       0.0114038
      2.4363101       1.6783400       0.0019232       9.9619656       0.0114155
      2.4372599       1.6751601       0.0019032       9.9508457       0.0113053
      2.4382200       1.6938699       0.0019292      10.0699158       0.0114689
      2.4391799       1.6865500       0.0019121      10.0342960       0.0113762
      2.4401300       1.6850700       0.0019113      10.0333023       0.0113804
      2.4410901       1.7017300       0.0019272      10.1404743       0.0114843
      2.4420400       1.6991200       0.0019125      10.1328030       0.0114054
      2.4430001       1.6880900       0.0018950      10.0749416       0.0113095
      2.4439499       1.7006800       0.0019413      10.1579771       0.0115953
      2.4449100       1.6884700       0.0018969      10.0929737       0.0113387
      2.4458699       1.6965500       0.0019058      10.1492367       0.0114008
      2.4468200       1.6917599       0.0019090      10.1284447       0.0114292
      2.4477799       1.6842400       0.0019010      10.0913363       0.0113902
      2.4487300       1.6899500       0.0018937      10.1334114       0.0113549
      2.4496901       1.6780400       0.0018801      10.0698881       0.0112827
      2.4506400       1.6707700       0.0018581      10.0340376       0.0111588
      2.4516001       1.6626500       0.0018686       9.9930973       0.0112307
      2.4525599       1.6709501       0.0018267      10.0508490       0.0109876
      2.4535100       1.6685899       0.0018431      10.0444298       0.0110952
      2.4544699       1.6733100       0.0018603      10.0807266       0.0112074
      2.4554200       1.6619900       0.0018321      10.0202837       0.0110461
      2.4563799       1.6497000       0.0018021       9.9539633       0.0108736
      2.4573400       1.6441200       0.0018323       9.9280510       0.0110645
      2.4582901       1.6679699       0.0018267      10.0798597       0.0110390
      2.4592500       1.6618800       0.0018396      10.0509014       0.0111258
      2.4602101       1.6647900       0.0018225      10.0763645       0.0110309
      2.4611599       1.6558700       0.0018049      10.0301151       0.0109329
      2.4621201       1.6404001       0.0017951       9.9441624       0.0108823
      2.4630699       1.6475500       0.0018205       9.9952135       0.0110447
      2.4640300       1.6625600       0.0018094      10.0941401       0.0109856
      2.4649899       1.6509200       0.0018156      10.0312796       0.0110318
      2.4659400       1.6647900       0.0017815      10.1233549       0.0108327
      2.4669001       1.6508100       0.0017706      10.0461626       0.0107754
      2.4678600       1.6616000       0.0017976      10.1196976       0.0109482
      2.4688101       1.6540900       0.0018088      10.0817175       0.0110246
      2.4697700       1.6526800       0.0017816      10.0809574       0.0108676
      2.4707301       1.6488600       0.0017991      10.0654774       0.0109824
      2.4716799       1.6389600       0.0017763      10.0127373       0.0108516
      2.4726400       1.6502200       0.0017842      10.0893612       0.0109084
      2.4735999       1.6429900       0.0017781      10.0529575       0.0108796
      2.4745500       1.6415499       0.0017763      10.0518637       0.0108773
      2.4755099       1.6531000       0.0017798      10.1304436       0.0109069
      2.4764700       1.6580200       0.0017767      10.1684771       0.0108965
      2.4774201       1.6528200       0.0017830      10.1443653       0.0109436
      2.4783800       1.6692300       0.0017952      10.2530241       0.0110270
      2.4793401       1.6517100       0.0017884      10.1532717       0.0109938
      2.4802899       1.6665100       0.0018027      10.2521000       0.0110897
      2.4812500       1.6457500       0.0017694      10.1322279       0.0108936
      2.4822099       1.6548200       0.0017813      10.1959515       0.0109749
      2.4831600       1.6431100       0.0017656      10.1315546       0.0108868
      2.4841199       1.6611000       0.0017819      10.2504015       0.0109961
      2.4850800       1.6447800       0.0017487      10.1575403       0.0107991
      2.4860401       1.6307800       0.0017652      10.0788651       0.0109097
      2.4869900       1.6479200       0.0017591      10.1925812       0.0108801
      2.4898601       1.6280299       0.0017259      10.0928144       0.0106994
      2.4908199       1.6294600       0.0017437      10.1094694       0.0108184
      2.4917800       1.6398300       0.0017459      10.1816511       0.0108400
      2.4927399       1.6292400       0.0017360      10.1236944       0.0107869
      2.4936900       1.6214300       0.0017268      10.0828466       0.0107380
      2.4946499       1.6285000       0.0017413      10.1346083       0.0108367
      2.4956100       1.6298900       0.0017198      10.1510677       0.0107108
      2.4965601       1.6259600       0.0017222      10.1343040       0.0107343
      2.4975200       1.6322000       0.0017228      10.1810207       0.0107460
      2.4984801       1.6102400       0.0016926      10.0517664       0.0105661
      2.4994400       1.6065400       0.0016776      10.0363770       0.0104801
      2.5003901       1.6163400       0.0017000      10.1052780       0.0106286
      2.5013499       1.6219100       0.0017172      10.1478882       0.0107444
      2.5023100       1.6237500       0.0017204      10.1672010       0.0107726
      2.5032699       1.6209500       0.0017177      10.1574564       0.0107639
      2.5042200       1.6183400       0.0017152      10.1488008       0.0107562
      2.5051799       1.6138300       0.0017052      10.1282778       0.0107016
      2.5061400       1.6239600       0.0017093      10.1996670       0.0107357
      2.5071001       1.6195199       0.0017088      10.1795750       0.0107404
      2.5080500       1.6119000       0.0016942      10.1393585       0.0106569
      2.5090101       1.6132500       0.0016993      10.1556215       0.0106975
      2.5099699       1.6153500       0.0017135      10.1766233       0.0107952
      2.5109301       1.6104000       0.0017131      10.1532011       0.0108010
      2.5118899       1.6258399       0.0017060      10.2583847       0.0107638
      2.5128400       1.6116400       0.0016375      10.1764832       0.0103399
      2.5137999       1.6230299       0.0016222      10.2562351       0.0102509
      2.5147600       1.6102500       0.0016320      10.1832504       0.0103205
      2.5157199       1.6146700       0.0016125      10.2189989       0.0102055
      2.5166800       1.6122700       0.0016053      10.2115993       0.0101677
      2.5176301       1.6138500       0.0016081      10.2293262       0.0101928
      2.5185900       1.6008900       0.0016030      10.1549187       0.0101686
      2.5195501       1.6007700       0.0015922      10.1619005       0.0101074
      2.5205100       1.6108600       0.0016129      10.2337465       0.0102465
      2.5214701       1.6013100       0.0016074      10.1808271       0.0102198
      2.5224199       1.5927200       0.0015917      10.1338444       0.0101272
      2.5233800       1.6036100       0.0015865      10.2109022       0.0101016
      2.5243399       1.5993900       0.0015906      10.1917801       0.0101358
      2.5253000       1.5975300       0.0015867      10.1876726       0.0101187
      2.5262599       1.5993700       0.0015829      10.2071619       0.0101021
      2.5272100       1.5836800       0.0015648      10.1146326       0.0099940
      2.5281701       1.5768300       0.0015602      10.0785360       0.0099722
      2.5291300       1.5769900       0.0015597      10.0872145       0.0099767
      2.5300901       1.5765500       0.0015586      10.0920572       0.0099773
      2.5310500       1.5890300       0.0015541      10.1796656       0.0099560
      2.5320101       1.5845600       0.0015414      10.1587334       0.0098823
      2.5329599       1.5809500       0.0015442      10.1431952       0.0099075
      2.5339200       1.5840400       0.0015699      10.1707258       0.0100797
      2.5348799       1.5913399       0.0015458      10.2253399       0.0099325
      2.5358400       1.6002001       0.0015631      10.2900620       0.0100514
      2.5367999       1.5839300       0.0015495      10.1931496       0.0099718
      2.5377600       1.5772500       0.0015338      10.1578465       0.0098779
      2.5387199       1.5981300       0.0015506      10.3001060       0.0099936
      2.5396700       1.5924500       0.0015609      10.2711811       0.0100679
      2.5406301       1.5716100       0.0015350      10.1444302       0.0099079
      2.5415900       1.5683700       0.0015395      10.1311674       0.0099445
      2.5425501       1.5776401       0.0015408      10.1987505       0.0099607
      2.5435100       1.5816900       0.0015536      10.2326527       0.0100512
      2.5444701       1.5923100       0.0015451      10.3091373       0.0100033
      2.5454299       1.5809700       0.0015475      10.2434425       0.0100265
      2.5463901       1.5794500       0.0015476      10.2413158       0.0100349
      2.5473399       1.5705900       0.0015320      10.1914654       0.0099413
      2.5483000       1.5758600       0.0015468      10.2333717       0.0100445
      2.5492599       1.5775800       0.0015469      10.2522602       0.0100529
      2.5502200       1.5649600       0.0015297      10.1779079       0.0099487
      2.5511799       1.5698400       0.0015386      10.2173328       0.0100141
      2.5521400       1.5618500       0.0015308      10.1729822       0.0099708
      2.5531001       1.5759600       0.0015512      10.2726116       0.0101111
      2.5540600       1.5772700       0.0015570      10.2888832       0.0101565
      2.5550201       1.5600100       0.0015280      10.1839437       0.0099752
      2.5559800       1.5555600       0.0015352      10.1625252       0.0100298
      2.5569301       1.5654600       0.0015357      10.2348070       0.0100406
      2.5578899       1.5681800       0.0015389      10.2602892       0.0100685
      2.5588500       1.5533500       0.0015266      10.1708908       0.0099956
      2.5598099       1.5658900       0.0015439      10.2606926       0.0101163
      2.5607700       1.5523200       0.0015498      10.1794052       0.0101631
      2.5617299       1.5546800       0.0015299      10.2025251       0.0100398
      2.5626900       1.5340800       0.0015120      10.0748863       0.0099299
      2.5636499       1.5422300       0.0015187      10.1359997       0.0099814
      2.5646100       1.5518700       0.0015298      10.2069969       0.0100620
      2.5655701       1.5495000       0.0015354      10.1990414       0.0101060
      2.5665300       1.5446800       0.0015232      10.1749249       0.0100332
      2.5674901       1.5549600       0.0015258      10.2503042       0.0100581
      2.5684500       1.5467800       0.0015263      10.2040071       0.0100692
      2.5694101       1.5503100       0.0015033      10.2349424       0.0099243
      2.5703700       1.5477700       0.0015144      10.2258091       0.0100053
      2.5713201       1.5530601       0.0015143      10.2683468       0.0100121
      2.5722799       1.5485500       0.0015036      10.2461729       0.0099490
      2.5732400       1.5498199       0.0015054      10.2622328       0.0099684
      2.5741999       1.5438900       0.0014960      10.2305956       0.0099131
      2.5751600       1.5309200       0.0014755      10.1522188       0.0097844
      2.5761199       1.5362300       0.0014846      10.1950264       0.0098522
      2.5770800       1.5341901       0.0014779      10.1890793       0.0098152
      2.5780399       1.5338900       0.0014480      10.1946774       0.0096235
      2.5790000       1.5377400       0.0014636      10.2278786       0.0097349
      2.5799601       1.5308599       0.0014646      10.1897011       0.0097489
      2.5809200       1.5220600       0.0014427      10.1386671       0.0096098
      2.5818801       1.5426199       0.0014730      10.2832661       0.0098190
      2.5828400       1.5301700       0.0014537      10.2078590       0.0096977
      2.5838001       1.5296201       0.0014405      10.2117786       0.0096167
      2.5847600       1.5123700       0.0014214      10.1041193       0.0094965
      2.5857201       1.5022500       0.0014055      10.0439653       0.0093968
      2.5866799       1.5255899       0.0014222      10.2075901       0.0095159
      2.5876400       1.5258200       0.0014198      10.2167091       0.0095065
      2.5885999       1.5355200       0.0014265      10.2892885       0.0095588
      2.5895600       1.5258000       0.0014261      10.2317419       0.0095631
      2.5905199       1.5314300       0.0014187      10.2771101       0.0095203
      2.5914800       1.5265599       0.0014027      10.2520237       0.0094201
      2.5924399       1.5196900       0.0013829      10.2134485       0.0092942
      2.5934000       1.5165100       0.0013793      10.1996269       0.0092765
      2.5943601       1.5290500       0.0014019      10.2915831       0.0094358
      2.5953200       1.5188900       0.0013906      10.2307663       0.0093665
      2.5962801       1.5224900       0.0013733      10.2626028       0.0092566
      2.5972400       1.5176500       0.0013541      10.2375441       0.0091342
      2.5982001       1.5149500       0.0013625      10.2268877       0.0091975
      2.5991600       1.5221400       0.0013783      10.2830181       0.0093110
      2.6001201       1.5185601       0.0013784      10.2664137       0.0093188
      2.6010799       1.5093300       0.0013663      10.2115488       0.0092441
      2.6020401       1.5151800       0.0013381      10.2586966       0.0090599
      2.6030099       1.5042800       0.0013375      10.1924906       0.0090628
      2.6039701       1.5057000       0.0013407      10.2096395       0.0090911
      2.6049299       1.5068500       0.0013437      10.2249718       0.0091177
      2.6058900       1.5074900       0.0013643      10.2368565       0.0092642
      2.6068499       1.5044600       0.0013541      10.2238083       0.0092023
      2.6078100       1.5067900       0.0013612      10.2471867       0.0092572
      2.6087699       1.5077400       0.0013457      10.2611961       0.0091583
      2.6097300       1.5101900       0.0013560      10.2854376       0.0092356
      2.6106901       1.4965600       0.0013468      10.2001085       0.0091795
      2.6116500       1.4986900       0.0013542      10.2221384       0.0092364
      2.6126101       1.5089000       0.0013629      10.2993469       0.0093030
      2.6135700       1.4979700       0.0013510      10.2322559       0.0092281
      2.6145301       1.4950401       0.0013399      10.2197466       0.0091590
      2.6154900       1.5007499       0.0013482      10.2663116       0.0092230
      2.6164501       1.4944400       0.0013393      10.2306538       0.0091687
      2.6174200       1.4974300       0.0013377      10.2587242       0.0091646
      2.6183801       1.4830800       0.0013437      10.1678696       0.0092123
      2.6193399       1.4818100       0.0013463      10.1666117       0.0092366
      2.6203001       1.4737099       0.0013377      10.1184521       0.0091843
      2.6212599       1.4665900       0.0013296      10.0769453       0.0091359
      2.6222200       1.4515400       0.0013368       9.9808445       0.0091922
      2.6231799       1.4395900       0.0013164       9.9059238       0.0090581
      2.6241400       1.4439700       0.0013374       9.9433374       0.0092096
      2.6250999       1.4055500       0.0012987       9.6858549       0.0089493
      2.6260600       1.4025700       0.0012994       9.6723909       0.0089606
      2.6270299       1.4153500       0.0013070       9.7677355       0.0090203
      2.6279900       1.4403600       0.0013252       9.9476032       0.0091519
      2.6289501       1.4551800       0.0013136      10.0573006       0.0090789
      2.6299100       1.4601700       0.0013417      10.0991592       0.0092796
      2.6308701       1.4649301       0.0013294      10.1394806       0.0092013
      2.6318300       1.4691401       0.0013365      10.1760406       0.0092574
      2.6327901       1.4881700       0.0013500      10.3153753       0.0093574
      2.6337500       1.4941601       0.0013511      10.3644485       0.0093722
      2.6347201       1.4773999       0.0013247      10.2557411       0.0091955
      2.6356800       1.4778800       0.0013425      10.2665501       0.0093257
      2.6366401       1.4735900       0.0013285      10.2442074       0.0092356
      2.6375999       1.4709800       0.0013285      10.2335100       0.0092419
      2.6385601       1.4890400       0.0013460      10.3666954       0.0093711
      2.6395199       1.4735600       0.0013394      10.2663889       0.0093320
      2.6404800       1.4802999       0.0013419      10.3208513       0.0093560
